* Sea-Bird SBE 9 Data File:
* FileName = D:\ACEX\brutos\MCTV011.hex
* Software Version Seasave V 7.17
* Temperature SN = 4821
* Conductivity SN = 3367
* Number of Bytes Per Scan = 21
* Number of Voltage Words = 3
* Number of Scans Averaged by the Deck Unit = 1
* System UpLoad Time = Jun 14 2012 13:21:17
** H38 
** NHo Cruzeiro do Sul 
** 222 
** MCTV ACEx 
**   011
**   27 00.12 S
**   046  28.96W
**   14/06/2012 16:20Z
**   409
** 9P46375-0882 
**   1T Germano Filho
# nquan = 16
# nvalues = 386                         
# units = specified
# name 0 = scan: Scan Count
# name 1 = timeJ: Julian Days
# name 2 = dz/dtM: Descent Rate [m/s]
# name 3 = prDM: Pressure, Digiquartz [db]
# name 4 = t090C: Temperature [ITS-90, deg C]
# name 5 = c0S/m: Conductivity [S/m]
# name 6 = sbeox0V: Oxygen Voltage, SBE 43
# name 7 = depSM: Depth [salt water, m]
# name 8 = flSP: Fluorescence, Seapoint
# name 9 = potemp090C: Potential Temperature [ITS-90, deg C]
# name 10 = sal00: Salinity [PSU]
# name 11 = density00: Density [density, Kg/m^3]
# name 12 = sigma-é00: Density [sigma-theta, Kg/m^3]
# name 13 = sbeox0ML/L: Oxygen, SBE 43 [ml/l], WS = 2
# name 14 = nbin: number of scans per bin
# name 15 = flag: flag
# span 0 =      15338,      30558       
# span 1 = 166.563843, 166.571183       
# span 2 =     -1.294,     -0.194       
# span 3 =      1.009,    388.891       
# span 4 =    12.2965,    23.2734       
# span 5 =   4.106097,   5.427815       
# span 6 =     2.1175,     3.4838       
# span 7 =      1.000,    386.000       
# span 8 = 4.7215e-02, 4.4549e-01       
# span 9 =    12.2442,    23.2732       
# span 10 =    35.2928,    37.3191      
# span 11 =  1025.6155,  1028.7465      
# span 12 =    25.6112,    27.0220      
# span 13 =    2.89506,    4.40263      
# span 14 =         18,         69      
# span 15 = 0.0000e+00, 0.0000e+00      
# interval = meters: 1                  
# start_time = Jun 14 2012 13:21:17
# bad_flag = -9.990e-29
# sensor 0 = Frequency  0  temperature, 4821, 05-sep-07
# sensor 1 = Frequency  1  conductivity, 3367, 05-mar-08, cpcor = -9.5700e-08
# sensor 2 = Frequency  2  pressure, 106018, 28-sep-07
# sensor 3 = Extrnl Volt  0  Oxygen, SBE, primary, 0802, 30-nov-07
# sensor 4 = Extrnl Volt  2  Fluorometer, Seapoint, primary
# sensor 5 = Extrnl Volt  4  altimeter
# datcnv_date = Jun 14 2012 14:47:38, 7.17
# datcnv_in = D:\ACEX\brutos\MCTV011.hex D:\ACEX\arqconfig\AC0882mod2.con
# datcnv_skipover = 3948
# filter_date = Jun 14 2012 14:48:08, 7.17
# filter_in = D:\ACEX\dat cnv\MCTV011.cnv
# filter_low_pass_tc_A = 0.150
# filter_low_pass_tc_B = 0.000
# filter_low_pass_A_vars = prDM
# filter_low_pass_B_vars = c0S/m
# alignctd_date = Jun 14 2012 14:48:27, 7.17
# alignctd_in = D:\ACEX\filter\MCTV011.cnv
# alignctd_adv = c0S/m 0.073, sbeox0V 2.000                                                                                                                                                                                          
# wildedit_date = Jun 14 2012 14:48:48, 7.17
# wildedit_in = D:\ACEX\align\MCTV011.cnv
# wildedit_pass1_nstd = 2.0
# wildedit_pass2_nstd = 20.0
# wildedit_pass2_mindelta = 1.000e+002
# wildedit_npoint = 1000
# wildedit_vars = dz/dtM prDM t090C c0S/m sbeox0V flSP
# wildedit_excl_bad_scans = yes
# celltm_date = Jun 14 2012 14:49:07, 7.17
# celltm_in = D:\ACEX\wildedit\MCTV011.cnv
# celltm_alpha = 0.0300, 0.0000
# celltm_tau = 7.0000, 0.0000
# celltm_temp_sensor_use_for_cond = primary, 
# loopedit_date = Jun 14 2012 14:49:29, 7.17
# loopedit_in = D:\ACEX\celltm\MCTV011.cnv
# loopedit_minVelocity = 0.250                                                                                            
# loopedit_surfaceSoak: minDepth = 5.0, maxDepth = 20, useDeckPress = 1                                                   
# loopedit_excl_bad_scans = yes
# Derive_date = Jun 14 2012 14:50:33, 7.17
# Derive_in = D:\ACEX\loopedit\MCTV011.cnv D:\ACEX\arqconfig\AC0882.con
# derive_time_window_docdt = seconds: 2
# binavg_date = Jun 14 2012 14:50:53, 7.17
# binavg_in = D:\ACEX\derive\MCTV011.cnv
# binavg_bintype = meters
# binavg_binsize = 1
# binavg_excl_bad_scans = yes
# binavg_skipover = 0
# binavg_surface_bin = no, min = 0.000, max = 0.000, value = 0.000
# split_date = Jun 14 2012 14:51:28, 7.17
# split_in = D:\ACEX\binavg\MCTV011.cnv
# split_excl_bad_scans = yes
# file_type = ascii
*END*
      15338 166.563843     -0.379    388.891    12.2965   4.109585     2.1175    386.000 5.1021e-02    12.2442    35.6180  1028.7465    27.0220    2.91726         47 0.0000e+00
      15415 166.563880     -0.346    387.884    12.2977   4.108829     2.2044    385.000 5.0496e-02    12.2455    35.6100  1028.7356    27.0155    3.09595         54 0.0000e+00
      15499 166.563921     -0.483    386.876    12.3009   4.106619     2.2600    384.000 5.1300e-02    12.2489    35.5859  1028.7118    26.9962    3.21029         36 0.0000e+00
      15545 166.563943     -0.536    385.869    12.3030   4.108537     2.3041    383.000 5.1244e-02    12.2512    35.6030  1028.7201    27.0090    3.30021         58 0.0000e+00
      15611 166.563975     -0.346    384.856    12.3139   4.108799     2.2833    382.000 5.0241e-02    12.2621    35.5956  1028.7077    27.0011    3.25628         59 0.0000e+00
      15657 166.563997     -0.523    383.845    12.3547   4.106097     2.2918    381.000 5.0313e-02    12.3030    35.5313  1028.6452    26.9432    3.27203         34 0.0000e+00
      15685 166.564011     -0.769    382.840    12.3652   4.106449     2.3274    380.000 5.0323e-02    12.3136    35.5252  1028.6339    26.9364    3.34417         28 0.0000e+00
      15712 166.564024     -0.875    381.836    12.3757   4.107081     2.3445    379.000 5.0155e-02    12.3242    35.5218  1028.6247    26.9317    3.37834         27 0.0000e+00
      15749 166.564041     -0.714    380.828    12.3697   4.107518     2.3237    378.000 5.0398e-02    12.3184    35.5321  1028.6294    26.9408    3.33526         49 0.0000e+00
      15807 166.564069     -0.380    379.814    12.3891   4.107835     2.2949    377.000 5.0217e-02    12.3378    35.5174  1028.6096    26.9256    3.27458         52 0.0000e+00
      15845 166.564088     -0.601    378.805    12.5064   4.111579     2.3222    376.000 4.9712e-02    12.4550    35.4433  1028.5239    26.8451    3.32380         28 0.0000e+00
      15873 166.564101     -0.841    377.798    12.5650   4.116398     2.3714    375.000 4.9972e-02    12.5136    35.4351  1028.5012    26.8272    3.42035         26 0.0000e+00
      15900 166.564114     -0.902    376.792    12.5920   4.113913     2.3905    374.000 4.9457e-02    12.5407    35.3862  1028.4534    26.7839    3.45819         25 0.0000e+00
      15926 166.564127     -0.900    375.785    12.6274   4.114610     2.3811    373.000 4.8971e-02    12.5762    35.3602  1028.4216    26.7567    3.43670         28 0.0000e+00
      15954 166.564140     -0.904    374.774    12.6486   4.114742     2.3562    372.000 4.9217e-02    12.5974    35.3421  1028.3987    26.7384    3.38422         26 0.0000e+00
      15981 166.564153     -0.878    373.769    12.6707   4.114846     2.3230    371.000 4.8269e-02    12.6197    35.3228  1028.3748    26.7191    3.31461         29 0.0000e+00
      16012 166.564168     -0.821    372.759    12.6811   4.114247     2.2815    370.000 4.8999e-02    12.6302    35.3078  1028.3565    26.7053    3.22905         31 0.0000e+00
      16050 166.564186     -0.665    371.752    12.6803   4.112571     2.2300    369.000 4.9167e-02    12.6296    35.2928  1028.3407    26.6939    3.12373         41 0.0000e+00
      16092 166.564207     -0.562    370.740    12.7046   4.117751     2.2155    368.000 5.7290e-02    12.6539    35.3202  1028.3524    26.7103    3.09148         40 0.0000e+00
      16128 166.564224     -0.658    369.735    12.7243   4.128470     2.2727    367.000 4.8362e-02    12.6736    35.4051  1028.4095    26.7722    3.20500         31 0.0000e+00
      16159 166.564239     -0.758    368.721    12.7276   4.132387     2.3285    366.000 4.7857e-02    12.6771    35.4400  1028.4313    26.7986    3.31752         29 0.0000e+00
      16186 166.564252     -0.858    367.718    12.7302   4.131959     2.3388    365.000 4.8141e-02    12.6798    35.4339  1028.4216    26.7934    3.33799         28 0.0000e+00
      16220 166.564269     -0.767    366.711    12.7188   4.124478     2.3131    364.000 4.8030e-02    12.6686    35.3732  1028.3726    26.7485    3.28700         42 0.0000e+00
      16271 166.564293     -0.457    365.698    12.6843   4.119518     2.2719    363.000 4.8464e-02    12.6343    35.3584  1028.3637    26.7438    3.20509         54 0.0000e+00
      16316 166.564315     -0.541    364.690    12.7638   4.128797     2.2848    362.000 4.8352e-02    12.7137    35.3734  1028.3545    26.7396    3.22550         35 0.0000e+00
      16349 166.564331     -0.700    363.683    12.7786   4.137433     2.3181    361.000 4.9911e-02    12.7286    35.4427  1028.4006    26.7905    3.29056         33 0.0000e+00
      16381 166.564346     -0.757    362.675    12.7970   4.139496     2.3427    360.000 4.8317e-02    12.7471    35.4457  1028.3946    26.7891    3.33881         31 0.0000e+00
      16418 166.564364     -0.676    361.667    12.8102   4.133812     2.3276    359.000 4.8898e-02    12.7605    35.3793  1028.3361    26.7349    3.30807         42 0.0000e+00
      16460 166.564384     -0.574    360.656    12.8096   4.132305     2.2870    358.000 4.8250e-02    12.7600    35.3659  1028.3214    26.7246    3.22544         38 0.0000e+00
      16496 166.564402     -0.653    359.648    12.8444   4.139280     2.2666    357.000 4.8265e-02    12.7948    35.4005  1028.3365    26.7445    3.18047         34 0.0000e+00
      16529 166.564417     -0.733    358.643    12.8498   4.143079     2.2614    356.000 4.8195e-02    12.8004    35.4322  1028.3554    26.7680    3.16865         34 0.0000e+00
      16568 166.564436     -0.645    357.634    12.8542   4.137888     2.2404    355.000 4.8365e-02    12.8049    35.3789  1028.3088    26.7257    3.12633         44 0.0000e+00
      16614 166.564459     -0.508    356.622    12.8518   4.136582     2.2072    354.000 4.8177e-02    12.8027    35.3691  1028.2972    26.7186    3.05865         43 0.0000e+00
      16653 166.564477     -0.618    355.618    12.8621   4.141300     2.1947    353.000 4.8008e-02    12.8131    35.4050  1028.3184    26.7444    3.03163         38 0.0000e+00
      16693 166.564497     -0.608    354.608    12.8767   4.141982     2.1762    352.000 4.8944e-02    12.8277    35.3983  1028.3058    26.7363    2.99287         40 0.0000e+00
      16733 166.564516     -0.593    353.598    12.9123   4.148511     2.1942    351.000 4.8464e-02    12.8635    35.4278  1028.3167    26.7519    3.02624         34 0.0000e+00
      16762 166.564530     -0.740    352.583    12.9655   4.155281     2.2422    350.000 4.8367e-02    12.9166    35.4433  1028.3131    26.7532    3.11948         26 0.0000e+00
      16784 166.564540     -0.979    351.586    12.9876   4.159386     2.2943    349.000 4.8517e-02    12.9388    35.4621  1028.3187    26.7634    3.22287         19 0.0000e+00
      16807 166.564552     -1.095    350.580    12.9934   4.154348     2.3245    348.000 4.8341e-02    12.9448    35.4091  1028.2720    26.7211    3.28411         27 0.0000e+00
      16844 166.564570     -0.735    349.575    12.9765   4.146860     2.3260    347.000 4.8566e-02    12.9281    35.3539  1028.2284    26.6817    3.28892         44 0.0000e+00
      16914 166.564603     -0.284    348.553    12.9734   4.148703     2.3054    346.000 4.7905e-02    12.9250    35.3748  1028.2407    26.6985    3.24665         42 0.0000e+00
      16944 166.564617     -0.694    347.548    13.0097   4.165197     2.3562    345.000 4.7833e-02    12.9614    35.4986  1028.3244    26.7871    3.34393         28 0.0000e+00
      16970 166.564630     -0.894    346.543    13.0095   4.168470     2.4031    344.000 4.8514e-02    12.9613    35.5304  1028.3446    26.8118    3.43775         26 0.0000e+00
      16996 166.564643     -0.912    345.534    13.0120   4.168575     2.4131    343.000 4.8432e-02    12.9640    35.5295  1028.3389    26.8106    3.45725         27 0.0000e+00
      17025 166.564657     -0.871    344.525    13.0137   4.161086     2.3957    342.000 4.8242e-02    12.9658    35.4570  1028.2780    26.7540    3.42305         29 0.0000e+00
      17056 166.564671     -0.795    343.519    13.0276   4.166142     2.3723    341.000 4.8306e-02    12.9798    35.4926  1028.2981    26.7787    3.37356         32 0.0000e+00
      17088 166.564687     -0.773    342.509    13.0517   4.168584     2.3477    340.000 4.9305e-02    13.0040    35.4937  1028.2895    26.7748    3.32177         32 0.0000e+00
      17120 166.564703     -0.733    341.501    13.0662   4.171762     2.3404    339.000 4.8233e-02    13.0186    35.5109  1028.2953    26.7851    3.30531         31 0.0000e+00
      17148 166.564716     -0.809    340.488    13.0824   4.175492     2.3661    338.000 4.8943e-02    13.0349    35.5317  1028.3035    26.7979    3.35521         25 0.0000e+00
      17170 166.564727     -0.986    339.482    13.1005   4.178201     2.3993    337.000 4.8118e-02    13.0530    35.5411  1028.3025    26.8015    3.42016         20 0.0000e+00
      17191 166.564737     -1.126    338.483    13.1090   4.177052     2.4179    336.000 4.8046e-02    13.0617    35.5225  1028.2820    26.7854    3.45700         23 0.0000e+00
      17221 166.564751     -0.954    337.475    13.0986   4.167178     2.4170    335.000 4.7678e-02    13.0516    35.4387  1028.2149    26.7225    3.45730         39 0.0000e+00
      17279 166.564779     -0.385    336.459    13.0543   4.162005     2.3799    334.000 4.7215e-02    13.0075    35.4312  1028.2138    26.7256    3.38521         69 0.0000e+00
      17331 166.564804     -0.470    335.444    13.1515   4.174762     2.3883    333.000 4.8110e-02    13.1046    35.4624  1028.2132    26.7301    3.39441         35 0.0000e+00
      17358 166.564817     -0.756    334.439    13.1602   4.184588     2.4438    332.000 4.8204e-02    13.1134    35.5481  1028.2731    26.7947    3.50308         23 0.0000e+00
      17380 166.564828     -1.001    333.435    13.1664   4.187630     2.4826    331.000 4.7730e-02    13.1196    35.5717  1028.2856    26.8117    3.57966         22 0.0000e+00
      17403 166.564839     -1.093    332.428    13.1700   4.187094     2.4949    330.000 4.7621e-02    13.1234    35.5636  1028.2741    26.8047    3.60382         23 0.0000e+00
      17426 166.564850     -1.079    331.422    13.1715   4.180174     2.4788    329.000 4.8561e-02    13.1251    35.4968  1028.2177    26.7526    3.57232         23 0.0000e+00
      17455 166.564864     -0.921    330.415    13.1633   4.172135     2.4453    328.000 4.8420e-02    13.1171    35.4285  1028.1622    26.7013    3.50658         32 0.0000e+00
      17487 166.564880     -0.737    329.403    13.1787   4.172991     2.4281    327.000 4.8344e-02    13.1326    35.4227  1028.1501    26.6937    3.47069         32 0.0000e+00
      17519 166.564895     -0.772    328.396    13.2171   4.180006     2.4062    326.000 4.8367e-02    13.1710    35.4540  1028.1617    26.7101    3.42281         31 0.0000e+00
      17557 166.564913     -0.660    327.387    13.2154   4.176827     2.3642    325.000 4.8593e-02    13.1694    35.4259  1028.1359    26.6886    3.33878         44 0.0000e+00
      17602 166.564935     -0.533    326.377    13.2172   4.176880     2.3237    324.000 4.7982e-02    13.1714    35.4252  1028.1305    26.6877    3.25692         41 0.0000e+00
      17636 166.564951     -0.656    325.368    13.2200   4.187420     2.3232    323.000 4.7902e-02    13.1743    35.5230  1028.2010    26.7629    3.25317         30 0.0000e+00
      17664 166.564965     -0.844    324.359    13.2204   4.192007     2.3498    322.000 4.7413e-02    13.1749    35.5666  1028.2300    26.7965    3.30527         25 0.0000e+00
      17690 166.564977     -0.914    323.356    13.2227   4.190514     2.3704    321.000 4.8070e-02    13.1773    35.5506  1028.2128    26.7837    3.34625         26 0.0000e+00
      17716 166.564990     -0.925    322.343    13.2286   4.191914     2.3774    320.000 4.7782e-02    13.1833    35.5589  1028.2135    26.7888    3.35930         23 0.0000e+00
      17739 166.565001     -0.976    321.340    13.2352   4.191252     2.3651    319.000 4.8292e-02    13.1901    35.5468  1028.1983    26.7781    3.33393         23 0.0000e+00
      17762 166.565012     -1.040    320.330    13.2564   4.191598     2.3463    318.000 4.8413e-02    13.2114    35.5308  1028.1770    26.7613    3.29483         23 0.0000e+00
      17787 166.565024     -1.021    319.323    13.2958   4.193285     2.3309    317.000 4.8449e-02    13.2508    35.5105  1028.1486    26.7376    3.26133         25 0.0000e+00
      17814 166.565037     -0.938    318.317    13.3276   4.191073     2.3039    316.000 4.7647e-02    13.2827    35.4604  1028.0987    26.6922    3.20591         31 0.0000e+00
      17855 166.565057     -0.639    317.308    13.2661   4.184810     2.2730    315.000 4.8294e-02    13.2215    35.4587  1028.1059    26.7034    3.14753         52 0.0000e+00
      17904 166.565081     -0.449    316.291    13.3722   4.193650     2.3157    314.000 4.8368e-02    13.3275    35.4441  1028.0678    26.6705    3.22600         36 0.0000e+00
      17933 166.565094     -0.750    315.288    13.4158   4.206688     2.3885    313.000 4.8699e-02    13.3711    35.5273  1028.1184    26.7259    3.36646         26 0.0000e+00
      17957 166.565106     -0.932    314.282    13.4192   4.210487     2.4360    312.000 4.7928e-02    13.3746    35.5605  1028.1389    26.7509    3.45974         25 0.0000e+00
      17984 166.565119     -0.952    313.273    13.4371   4.208544     2.4451    311.000 4.8184e-02    13.3927    35.5258  1028.1038    26.7203    3.47705         26 0.0000e+00
      18011 166.565132     -0.889    312.266    13.4520   4.206130     2.4298    310.000 4.8052e-02    13.4077    35.4896  1028.0683    26.6892    3.44568         28 0.0000e+00
      18038 166.565145     -0.889    311.258    13.4751   4.204701     2.3992    309.000 4.8532e-02    13.4309    35.4551  1028.0322    26.6577    3.38349         28 0.0000e+00
      18068 166.565159     -0.849    310.251    13.4894   4.201534     2.3578    308.000 4.9171e-02    13.4453    35.4124  1027.9918    26.6217    3.30031         30 0.0000e+00
      18101 166.565175     -0.754    309.239    13.5040   4.203682     2.3207    307.000 4.8438e-02    13.4601    35.4195  1027.9897    26.6241    3.22495         35 0.0000e+00
      18133 166.565191     -0.728    308.232    13.5310   4.212811     2.3182    306.000 4.8267e-02    13.4871    35.4810  1028.0270    26.6662    3.21655         30 0.0000e+00
      18162 166.565205     -0.811    307.223    13.5560   4.220459     2.3613    305.000 4.7870e-02    13.5121    35.5303  1028.0553    26.6992    3.29916         29 0.0000e+00
      18191 166.565219     -0.855    306.221    13.5941   4.224073     2.4050    304.000 4.7856e-02    13.5503    35.5294  1028.0421    26.6906    3.38304         31 0.0000e+00
      18231 166.565238     -0.628    305.209    13.5857   4.211321     2.4126    303.000 4.8163e-02    13.5422    35.4175  1027.9530    26.6056    3.40067         49 0.0000e+00
      18275 166.565260     -0.519    304.195    13.6665   4.217266     2.4209    302.000 4.7745e-02    13.6229    35.3991  1027.9171    26.5747    3.41157         31 0.0000e+00
      18302 166.565272     -0.776    303.188    13.7146   4.232431     2.4496    301.000 4.8623e-02    13.6710    35.4976  1027.9784    26.6408    3.46268         25 0.0000e+00
      18323 166.565283     -1.009    302.188    13.7197   4.240284     2.4800    300.000 4.7881e-02    13.6762    35.5670  1028.0264    26.6935    3.52045         21 0.0000e+00
